u:\PHYS 402\Lab 1 (D7)\day2data4.txt

DAQ PROGRAM: DGMC2.prj 


Date: 
09-08-2020
Time: 
11:01:53
Total Number of Data Points:     
350
Stepper Motor Step Size (Cycles):
1
Stepper Motor Step Size (Steps): 
40
Stepper Motor Step Size (cm):    
2.0

W(A) 	Robs 	WNum 
        4651.65	     107.311321	    1172.848126
        4653.15	     109.669811	    1179.778189
        4655.15	          125.0	    1189.011325
        4657.15	     100.235849	    1198.236532
        4659.15	      92.570755	    1207.453818
         4661.2	      87.264151	    1216.893328
        4663.15	     113.207547	    1225.864671
        4665.15	      91.391509	    1235.058258
        4667.15	      83.726415	    1244.243966
        4669.15	      96.108491	    1253.421805
         4671.2	      79.009434	    1262.820933
        4673.15	      95.518868	    1271.753914
        4675.15	      88.443396	    1280.908205
        4677.15	      83.136792	    1290.054668
        4679.15	      97.877358	    1299.193311
         4681.2	      83.136792	    1308.552316
        4683.15	      88.443396	    1317.447181
        4685.15	      86.084906	    1326.562428
         4687.2	      96.108491	    1335.897483
        4689.15	     110.259434	    1344.769594
         4691.2	     127.358491	    1354.088733
        4693.15	     151.533019	    1362.945725
         4695.2	      145.04717	    1372.248988
        4697.15	     149.174528	    1381.090898
        4699.15	     109.669811	    1390.151901
         4701.2	      104.95283	    1399.431428
        4703.15	      74.882075	    1408.250787
        4705.15	      99.056604	    1417.288691
        4707.15	      75.471698	    1426.318914
        4709.15	      73.113208	    1435.341467
        4711.15	      77.240566	    1444.356359
        4713.15	      54.834906	      1453.3636
         4715.1	      67.806604	    1462.138304
        4717.15	       82.54717	     1471.35517
         4719.1	      73.113208	    1480.115001
        4721.15	      89.033019	    1489.316252
        4723.15	      64.858491	    1498.285385
        4725.15	      74.882075	    1507.246925
         4727.1	      76.061321	    1515.977126
         4729.1	      74.292453	    1524.923699
        4731.15	      57.783019	    1534.086086
        4733.15	      76.650943	    1543.017352
        4735.15	      75.471698	    1551.941073
        4737.15	      87.264151	    1560.857259
        4739.15	      70.754717	    1569.765919
        4741.15	      89.033019	    1578.667063
        4743.15	      76.061321	    1587.560701
        4745.15	      90.801887	    1596.446842
        4747.15	          93.75	    1605.325495
        4749.15	      90.212264	     1614.19667
        4751.15	      97.877358	    1623.060377
        4753.15	      89.033019	    1631.916624
        4755.15	      68.396226	    1640.765422
        4757.15	       84.90566	    1649.606779
        4759.15	      70.754717	    1658.440705
         4761.2	      75.471698	    1667.487777
        4763.15	      60.141509	    1676.086301
        4765.15	      61.910377	     1684.89799
        4767.15	      57.193396	    1693.702285
        4769.15	     103.183962	    1702.499196
         4771.2	      81.367925	    1711.508376
        4773.15	      96.108491	    1720.070902
        4775.15	       82.54717	    1728.845716
        4777.15	      102.59434	    1737.613182
         4779.2	      99.646226	    1746.592219
         4781.2	     124.410377	    1755.344835
        4783.15	     119.693396	    1763.871589
        4785.15	     112.617925	    1772.609758
         4787.2	      83.136792	    1781.558804
        4789.15	      67.216981	    1790.064201
         4791.2	      64.268868	    1798.998307
        4793.15	      67.216981	    1807.489511
        4795.15	      66.627358	    1816.191265
        4797.15	       84.90566	    1824.885763
        4799.15	      81.957547	    1833.573014
         4801.2	      81.957547	    1842.469935
        4803.15	      79.009434	    1850.925812
        4805.15	      67.806604	    1859.591377
        4807.15	      60.141509	    1868.249732
        4809.15	      58.372642	    1876.900885
        4811.15	      75.471698	    1885.544846
        4813.15	      70.165094	    1894.181623
        4815.15	       82.54717	    1902.811225
        4817.15	     106.132075	    1911.433661
        4819.15	      104.95283	    1920.048941
        4821.15	     140.919811	    1928.657073
         4823.1	     158.608491	    1937.043128
         4825.1	     153.301887	    1945.637168
         4827.1	     140.330189	    1954.224088
        4829.15	      94.929245	    1963.018299
        4831.15	      84.316038	    1971.590824
         4833.1	      79.009434	    1979.942205
        4835.15	      61.910377	    1988.714599
        4837.15	      70.165094	    1997.265867
        4839.15	      45.990566	    2005.810066
        4841.15	      72.523585	    2014.347205
        4843.15	      77.240566	    2022.877293
        4845.15	      54.245283	     2031.40034
        4847.15	      59.551887	    2039.916353
        4849.15	      63.679245	    2048.425341
         4851.2	      44.221698	    2057.139772
        4853.15	      54.834906	    2065.422277
        4855.15	      58.372642	    2073.910243
        4857.15	      67.806604	    2082.391219
        4859.15	      66.037736	    2090.865214
         4861.2	      66.627358	    2099.543822
        4863.15	      74.882075	    2107.792293
        4865.15	      64.858491	    2116.245394
        4867.15	      61.910377	    2124.691549
        4869.15	      71.933962	    2133.130765
         4871.2	      58.372642	     2141.77377
        4873.15	      65.448113	    2149.988416
        4875.15	      69.575472	    2158.406868
        4877.15	      52.476415	    2166.818416
        4879.15	      57.193396	    2175.223067
         4881.2	      67.806604	    2183.830687
        4883.15	      60.141509	    2192.011716
        4885.15	      51.886792	    2200.395731
        4887.15	      44.811321	    2208.772884
        4889.15	      43.042453	    2217.143182
         4891.2	      51.886792	    2225.715635
        4893.15	      66.627358	    2233.863253
        4895.15	      49.528302	    2242.213041
        4897.15	      48.938679	    2250.556009
        4899.15	       51.29717	    2258.892166
         4901.2	      58.372642	    2267.429665
        4903.15	      61.910377	    2275.544076
        4905.15	      60.141509	    2283.859847
        4907.15	      47.169811	     2292.16884
        4909.15	      77.830189	    2300.471062
        4911.15	       71.34434	    2308.766523
        4913.15	      77.830189	    2317.055229
         4915.1	      83.726415	    2325.130224
        4917.15	     129.127358	    2333.612415
        4919.15	     102.004717	     2341.88091
        4921.15	     127.948113	    2350.142684
         4923.1	      136.20283	    2358.191451
         4925.1	     156.839623	    2366.439976
         4927.1	     112.028302	    2374.681804
         4929.1	      102.59434	    2382.916944
        4931.15	      93.160377	     2391.35103
         4933.1	      68.396226	    2399.367192
         4935.1	      64.268868	    2407.582316
        4937.15	      57.783019	    2415.995911
        4939.15	      54.834906	    2424.197565
        4941.15	      58.372642	     2432.39258
        4943.15	       53.65566	    2440.580963
        4945.15	      44.221698	    2448.762723
        4947.15	      58.962264	    2456.937868
        4949.15	      61.910377	    2465.106405
         4951.2	      65.448113	    2473.472307
        4953.15	      55.424528	     2481.42369
        4955.15	      57.193396	    2489.572453
        4957.15	      54.834906	    2497.714641
        4959.15	       53.65566	    2505.850262
         4961.2	      52.476415	    2514.182466
        4963.15	      56.603774	    2522.101833
         4965.2	      61.320755	    2530.420614
         4967.2	      51.886792	    2538.529881
         4969.2	      47.759434	    2546.632621
         4971.2	      56.603774	     2554.72884
        4973.15	      63.089623	    2562.616385
        4975.15	      56.014151	    2570.699751
         4977.2	      61.910377	     2578.97846
        4979.15	      56.603774	    2586.847002
         4981.2	      54.245283	    2595.112418
        4983.15	      47.759434	    2602.968331
        4985.15	      59.551887	    2611.019293
         4987.2	      50.707547	    2619.264828
         4989.2	      51.886792	    2627.302723
         4991.2	      53.066038	    2635.334175
        4993.15	      48.938679	    2643.158647
        4995.15	      43.632075	      2651.1774
        4997.15	      30.660377	    2659.189735
        4999.15	       42.45283	    2667.195659
         5001.2	       40.09434	    2675.395085
        5003.15	      47.169811	    2683.188304
        5005.15	      51.886792	    2691.175041
        5007.15	       40.09434	    2699.155397
        5009.15	      50.117925	    2707.129381
        5011.15	      56.603774	       2715.097
        5013.15	      53.066038	    2723.058262
        5015.15	      47.169811	    2731.013173
        5017.15	           62.5	    2738.961743
         5019.1	      54.245283	    2746.705499
        5021.15	      59.551887	    2754.839886
        5023.15	      47.759434	    2762.769475
         5025.1	      53.066038	    2770.494746
         5027.1	      54.245283	    2778.411876
         5029.1	      48.938679	    2786.322709
        5031.15	      47.169811	    2794.424785
         5033.1	      61.910377	    2802.125513
        5035.15	      52.476415	    2810.214719
        5037.15	       42.45283	    2818.100282
        5039.15	      54.245283	    2825.979585
        5041.15	      60.141509	    2833.852637
        5043.15	      50.117925	    2841.719443
        5045.15	      48.938679	    2849.580013
        5047.15	      45.400943	    2857.434353
        5049.15	       40.09434	    2865.282471
        5051.15	      45.990566	    2873.124374
        5053.15	      43.632075	    2880.960069
        5055.15	       51.29717	    2888.789564
        5057.15	      47.759434	    2896.612867
        5059.15	      35.966981	    2904.429983
         5061.2	      53.066038	    2912.436117
        5063.15	      44.811321	     2920.04569
        5065.15	      46.580189	    2927.844294
         5067.2	      45.400943	    2935.831475
        5069.15	      50.117925	    2943.423042
         5071.2	      45.400943	    2951.397625
        5073.15	      40.683962	    2958.977223
        5075.15	          31.25	    2966.745119
        5077.15	      49.528302	    2974.506895
         5079.2	      41.273585	    2982.456372
         5081.2	      43.632075	    2990.205778
        5083.15	      49.528302	    2997.755577
        5085.15	      44.221698	    3005.492946
         5087.2	      44.811321	    3013.417435
        5089.15	      46.580189	    3020.949439
         5091.2	      54.245283	    3028.861479
        5093.15	      43.042453	    3036.381654
        5095.15	      54.245283	    3044.088676
        5097.15	       40.09434	    3051.789649
        5099.15	      51.886792	    3059.484581
         5101.2	      38.915094	    3067.365624
        5103.15	          31.25	    3074.856351
        5105.15	      44.221698	    3082.533202
        5107.15	      44.221698	    3090.204041
        5109.15	      34.787736	    3097.868875
         5111.2	      48.938679	    3105.719104
        5113.15	      38.915094	    3113.180554
        5115.15	      36.556604	    3120.827413
        5117.15	      27.122642	    3128.468294
         5119.1	      44.221698	    3135.912406
        5121.15	      43.042453	    3143.732153
         5123.1	      50.117925	    3151.164643
         5125.1	      52.476415	    3158.781833
         5127.1	       51.29717	    3166.393081
         5129.1	      34.787736	    3173.998393
        5131.15	      45.990566	    3181.787685
         5133.1	      30.660377	    3189.191238
         5135.1	      43.632075	    3196.778784
        5137.15	      48.938679	    3204.549888
        5139.15	       40.09434	    3212.125478
        5141.15	      41.863208	    3219.695174
        5143.15	      36.556604	    3227.258982
        5145.15	      41.273585	    3234.816911
        5147.15	      28.891509	    3242.368965
        5149.15	      35.966981	    3249.915153
        5151.15	       42.45283	    3257.455482
        5153.15	          31.25	    3264.989957
        5155.15	      47.759434	    3272.518586
        5157.15	      38.915094	    3280.041376
        5159.15	      39.504717	    3287.558333
         5161.2	      43.632075	    3295.257168
        5163.15	      26.533019	    3302.574777
        5165.15	      55.424528	    3310.074277
        5167.15	      39.504717	    3317.567972
        5169.15	      32.429245	    3325.055867
         5171.2	       42.45283	     3332.72495
        5173.15	      40.683962	     3340.01429
        5175.15	      48.349057	    3347.484829
        5177.15	      27.122642	    3354.949597
        5179.15	      41.863208	      3362.4086
         5181.2	      33.018868	    3370.048101
        5183.15	      36.556604	    3377.309336
        5185.15	      30.070755	    3384.751083
         5187.2	       22.40566	    3392.372918
        5189.15	      34.787736	    3399.617367
         5191.2	      44.811321	    3407.227459
        5193.15	      36.556604	    3414.460751
        5195.15	      29.481132	    3421.873871
        5197.15	      25.353774	    3429.281285
        5199.15	      38.325472	    3436.683001
         5201.2	      35.377358	    3444.263852
        5203.15	      25.353774	    3451.469362
        5205.15	      27.122642	     3458.85402
        5207.15	      29.481132	    3466.233005
        5209.15	      33.608491	    3473.606325
        5211.15	      38.325472	    3480.973984
        5213.15	      30.070755	    3488.335991
        5215.15	      29.481132	    3495.692351
         5217.1	      35.966981	    3502.859371
         5219.1	      33.608491	    3510.204598
        5221.15	      30.660377	    3517.727616
         5223.1	      29.481132	    3524.878177
         5225.1	      28.301887	    3532.206541
        5227.15	      43.632075	    3539.712294
        5229.15	      24.174528	    3547.029309
        5231.15	      23.584906	    3554.340729
         5233.1	      33.018868	    3561.463982
         5235.1	      26.533019	    3568.764371
        5237.15	      32.429245	    3576.241483
        5239.15	      22.995283	    3583.530587
        5241.15	      28.301887	    3590.814128
        5243.15	      31.839623	    3598.092112
         5245.1	      39.504717	    3605.182803
        5247.15	      32.429245	    3612.631437
        5249.15	      26.533019	    3619.892789
         5251.2	      39.504717	    3627.329936
        5253.15	      27.712264	    3634.398907
        5255.15	      30.660377	    3641.643685
        5257.15	      31.839623	    3648.882951
        5259.15	          31.25	    3656.116711
         5261.2	      30.660377	    3663.525606
        5263.15	      24.174528	    3670.567737
        5265.15	      32.429245	    3677.785016
         5267.2	      34.787736	    3685.177039
        5269.15	      28.301887	    3692.203137
         5271.2	      33.018868	    3699.583943
        5273.15	      48.938679	    3706.599385
        5275.15	      39.504717	    3713.789321
        5277.15	      34.198113	    3720.973808
        5279.15	      37.146226	    3728.152851
         5281.2	      34.198113	    3735.505727
        5283.15	      32.429245	    3742.494631
        5285.15	      21.816038	     3749.65738
         5287.2	      37.146226	    3756.993574
         5289.2	      32.429245	    3764.145356
         5291.2	      39.504717	    3771.291731
        5293.15	      45.990566	    3778.254248
        5295.15	      39.504717	    3785.389963
        5297.15	      72.523585	     3792.52029
        5299.15	      65.448113	    3799.645235
         5301.2	     120.872642	    3806.942724
        5303.15	      99.056604	    3813.879003
        5305.15	      90.212264	    3820.987837
        5307.15	     103.773585	    3828.091314
        5309.15	      92.570755	    3835.189439
         5311.2	      72.523585	    3842.459469
        5313.15	           62.5	    3849.369657
        5315.15	       51.29717	    3856.451763
        5317.15	      33.018868	    3863.528541
        5319.15	      38.325472	    3870.599997
        5321.15	      24.174528	    3877.666137
         5323.1	      19.457547	    3884.550511
        5325.15	          31.25	    3891.782494
         5327.1	      32.429245	    3898.656532
         5329.1	      37.146226	    3905.701602
        5331.15	      25.943396	    3912.917312
        5333.15	      25.353774	    3919.951683
         5335.1	      24.174528	    3926.805117
        5337.15	      29.481132	     3934.00461
        5339.15	      33.018868	    3941.023177
        5341.15	      27.122642	    3948.036488
        5343.15	      25.353774	    3955.044549
        5345.15	       22.40566	    3962.047365
        5347.15	      21.816038	    3969.044943
        5349.15	       22.40566	    3976.037288
